File: UVVIS_Absorbance_Anode_Adsorbed.csv
A,B,K,M,C,P,AB,AK,AM,AC,AP,BK,BM,BC,BP,KM,KC,KP,MC,MP,CP,ABK,ABM,ABC,ABP,AKM,AKC,AKP,AMC,AMP,ACP,BKM,BKC,BKP,BMC,BMP,BCP,KMC,KMP,KCP,MCP,ABKMCP
0.131,-0.086,0.084,0.136,0.058,0.136,-0.186,0.127,-0.341,-0.586,-0.305,-0.363,0.016,-0.062,0.136,0.006,-0.55,-0.477,0.067,-0.187,0.151,0.112,-0.054,0.304,-0.279,0.086,0.078,-0.255,0.07,-0.167,-0.217,-0.272,0.089,-0.021,-0.052,0.062,0.033,0.172,-1.14,0.286,0.075,0.055
0.371,0.579,0.586,0.718,0.149,0.342,0.239,0.334,0.238,-0.069,0.116,0.08,0.577,0.293,0.312,0.805,0.076,0.132,0.836,0.508,0.513,0.387,0.343,0.497,-0.072,0.58,0.259,0.18,0.3,0.145,0.055,0.126,0.364,0.368,0.293,0.262,0.336,0.683,-0.699,0.313,0.592,0.719
0.339,0.576,0.74,0.799,0.241,0.305,0.424,0.321,0.585,0.219,0.334,0.287,0.542,0.387,0.212,1.018,0.352,0.46,0.84,0.58,0.367,0.403,0.381,0.482,0.221,0.611,0.392,0.575,0.535,0.435,0.242,0.487,0.302,0.468,0.339,0.274,0.342,0.818,0.081,0.324,0.489,0.72
0.325,0.628,0.789,0.78,0.224,0.296,0.379,0.339,0.639,0.272,0.291,0.266,0.43,0.343,0.186,0.955,0.336,0.417,0.739,0.47,0.303,0.308,0.322,0.363,0.233,0.569,0.333,0.519,0.567,0.384,0.25,0.466,0.236,0.37,0.28,0.246,0.259,0.715,0.399,0.271,0.385,0.587
0.28,0.575,0.772,0.757,0.184,0.26,0.341,0.32,0.612,0.241,0.245,0.242,0.364,0.303,0.154,0.908,0.273,0.361,0.655,0.399,0.255,0.263,0.277,0.303,0.199,0.516,0.292,0.466,0.515,0.335,0.231,0.409,0.197,0.3,0.245,0.214,0.219,0.647,0.465,0.234,0.318,0.499
0.247,0.524,0.733,0.717,0.15,0.217,0.292,0.298,0.578,0.209,0.21,0.204,0.321,0.267,0.122,0.846,0.235,0.308,0.581,0.333,0.22,0.223,0.252,0.26,0.18,0.503,0.255,0.418,0.468,0.292,0.198,0.361,0.158,0.255,0.215,0.173,0.178,0.564,0.482,0.195,0.263,0.438
0.234,0.497,0.703,0.678,0.14,0.194,0.271,0.289,0.554,0.189,0.19,0.191,0.287,0.244,0.106,0.805,0.21,0.28,0.514,0.281,0.196,0.196,0.226,0.23,0.157,0.469,0.229,0.373,0.435,0.248,0.173,0.324,0.139,0.217,0.186,0.149,0.158,0.497,0.48,0.171,0.222,0.378
0.225,0.473,0.663,0.634,0.124,0.171,0.247,0.275,0.518,0.177,0.169,0.173,0.26,0.231,0.092,0.75,0.186,0.248,0.459,0.242,0.177,0.177,0.208,0.21,0.143,0.445,0.206,0.334,0.407,0.214,0.154,0.291,0.123,0.188,0.168,0.126,0.139,0.446,0.467,0.147,0.19,0.338
0.213,0.453,0.598,0.592,0.108,0.155,0.233,0.256,0.487,0.162,0.15,0.157,0.235,0.219,0.081,0.7,0.16,0.22,0.405,0.211,0.16,0.163,0.193,0.19,0.132,0.418,0.19,0.304,0.378,0.191,0.144,0.264,0.11,0.168,0.152,0.112,0.127,0.394,0.435,0.13,0.168,0.307
0.2,0.436,0.512,0.536,0.09,0.135,0.215,0.234,0.455,0.148,0.133,0.141,0.211,0.209,0.069,0.632,0.133,0.195,0.356,0.183,0.145,0.151,0.177,0.172,0.121,0.381,0.172,0.273,0.343,0.166,0.128,0.237,0.099,0.148,0.138,0.096,0.112,0.343,0.4,0.109,0.143,0.272
0.187,0.418,0.423,0.477,0.076,0.122,0.204,0.214,0.419,0.135,0.12,0.133,0.193,0.198,0.061,0.56,0.115,0.174,0.314,0.162,0.13,0.141,0.164,0.163,0.112,0.342,0.156,0.251,0.312,0.147,0.115,0.213,0.093,0.13,0.126,0.084,0.099,0.299,0.365,0.093,0.127,0.243
0.183,0.402,0.333,0.396,0.07,0.111,0.198,0.196,0.387,0.124,0.117,0.125,0.185,0.195,0.061,0.467,0.099,0.16,0.27,0.148,0.128,0.141,0.155,0.16,0.111,0.312,0.146,0.238,0.287,0.135,0.11,0.205,0.092,0.123,0.12,0.074,0.098,0.252,0.342,0.084,0.109,0.216
0.187,0.392,0.258,0.32,0.06,0.102,0.191,0.181,0.343,0.113,0.108,0.119,0.171,0.185,0.051,0.366,0.084,0.139,0.222,0.124,0.118,0.132,0.149,0.155,0.102,0.258,0.131,0.223,0.25,0.119,0.101,0.188,0.089,0.111,0.111,0.068,0.089,0.209,0.317,0.075,0.096,0.195
0.201,0.386,0.196,0.235,0.055,0.097,0.192,0.178,0.309,0.107,0.105,0.117,0.162,0.186,0.049,0.27,0.075,0.13,0.187,0.113,0.115,0.135,0.146,0.155,0.098,0.22,0.124,0.218,0.224,0.11,0.098,0.179,0.089,0.106,0.107,0.063,0.086,0.173,0.294,0.067,0.088,0.182
0.219,0.382,0.156,0.178,0.051,0.094,0.196,0.185,0.287,0.104,0.103,0.115,0.159,0.186,0.049,0.204,0.07,0.126,0.163,0.107,0.113,0.139,0.146,0.158,0.096,0.196,0.121,0.212,0.208,0.104,0.097,0.173,0.092,0.103,0.105,0.061,0.085,0.147,0.276,0.065,0.082,0.173
0.229,0.376,0.122,0.131,0.046,0.092,0.202,0.188,0.27,0.102,0.102,0.116,0.156,0.188,0.049,0.153,0.066,0.122,0.143,0.101,0.113,0.141,0.147,0.16,0.095,0.18,0.121,0.208,0.192,0.099,0.098,0.166,0.092,0.1,0.102,0.061,0.085,0.124,0.255,0.062,0.079,0.17
0.225,0.371,0.097,0.102,0.041,0.087,0.201,0.184,0.256,0.098,0.1,0.112,0.151,0.186,0.047,0.124,0.063,0.118,0.128,0.095,0.111,0.142,0.146,0.159,0.094,0.167,0.12,0.205,0.181,0.095,0.097,0.159,0.091,0.098,0.099,0.06,0.083,0.11,0.242,0.061,0.075,0.165
0.205,0.362,0.076,0.078,0.038,0.082,0.197,0.169,0.244,0.093,0.1,0.108,0.145,0.181,0.046,0.099,0.059,0.115,0.117,0.091,0.11,0.139,0.141,0.155,0.093,0.156,0.116,0.201,0.172,0.091,0.094,0.15,0.086,0.094,0.095,0.058,0.081,0.096,0.228,0.058,0.072,0.159
0.177,0.352,0.062,0.062,0.034,0.077,0.184,0.148,0.23,0.086,0.097,0.099,0.134,0.175,0.044,0.082,0.055,0.109,0.106,0.084,0.107,0.129,0.132,0.146,0.09,0.143,0.112,0.196,0.165,0.087,0.09,0.139,0.078,0.089,0.086,0.053,0.077,0.086,0.218,0.055,0.067,0.153
0.145,0.34,0.049,0.051,0.032,0.071,0.165,0.121,0.212,0.079,0.094,0.088,0.121,0.165,0.039,0.068,0.053,0.103,0.097,0.078,0.103,0.113,0.117,0.131,0.086,0.128,0.105,0.192,0.159,0.083,0.085,0.124,0.069,0.083,0.077,0.047,0.072,0.077,0.207,0.05,0.06,0.144
0.119,0.33,0.042,0.045,0.03,0.065,0.141,0.099,0.197,0.072,0.089,0.076,0.105,0.155,0.034,0.058,0.05,0.096,0.09,0.072,0.099,0.095,0.101,0.114,0.081,0.113,0.096,0.186,0.153,0.078,0.08,0.108,0.057,0.076,0.068,0.042,0.067,0.07,0.197,0.046,0.055,0.135
0.098,0.319,0.038,0.039,0.028,0.059,0.115,0.082,0.183,0.066,0.084,0.063,0.088,0.143,0.029,0.049,0.049,0.088,0.084,0.064,0.095,0.075,0.082,0.095,0.076,0.1,0.089,0.179,0.149,0.073,0.074,0.092,0.046,0.069,0.058,0.036,0.062,0.064,0.185,0.041,0.049,0.125
0.087,0.315,0.037,0.038,0.031,0.056,0.095,0.072,0.174,0.062,0.079,0.055,0.076,0.137,0.026,0.045,0.049,0.083,0.082,0.06,0.09,0.058,0.067,0.079,0.07,0.089,0.081,0.171,0.143,0.067,0.069,0.079,0.036,0.061,0.05,0.03,0.057,0.06,0.173,0.037,0.044,0.116
0.077,0.308,0.036,0.035,0.03,0.051,0.077,0.063,0.165,0.056,0.072,0.045,0.064,0.131,0.022,0.04,0.047,0.075,0.079,0.053,0.085,0.044,0.055,0.065,0.064,0.077,0.074,0.161,0.136,0.06,0.064,0.068,0.029,0.055,0.044,0.026,0.052,0.055,0.158,0.031,0.039,0.105
0.07,0.308,0.035,0.035,0.031,0.048,0.068,0.058,0.158,0.053,0.065,0.041,0.059,0.128,0.021,0.038,0.047,0.07,0.078,0.049,0.081,0.036,0.048,0.055,0.06,0.07,0.068,0.153,0.131,0.055,0.06,0.061,0.023,0.051,0.039,0.023,0.049,0.052,0.143,0.027,0.035,0.093
0.063,0.302,0.034,0.033,0.032,0.044,0.058,0.051,0.149,0.048,0.058,0.037,0.053,0.126,0.018,0.035,0.045,0.067,0.075,0.045,0.079,0.032,0.044,0.05,0.057,0.063,0.063,0.145,0.129,0.049,0.058,0.056,0.022,0.048,0.037,0.022,0.048,0.051,0.131,0.025,0.032,0.081
0.059,0.3,0.034,0.032,0.035,0.043,0.055,0.049,0.144,0.047,0.055,0.036,0.052,0.127,0.019,0.034,0.048,0.067,0.078,0.045,0.077,0.03,0.041,0.047,0.055,0.058,0.06,0.137,0.126,0.048,0.057,0.052,0.02,0.044,0.036,0.02,0.046,0.049,0.121,0.023,0.03,0.072
0.052,0.295,0.031,0.029,0.038,0.037,0.047,0.041,0.136,0.041,0.05,0.032,0.048,0.124,0.017,0.033,0.051,0.064,0.079,0.041,0.077,0.029,0.04,0.043,0.053,0.052,0.058,0.134,0.124,0.045,0.056,0.048,0.019,0.044,0.035,0.02,0.045,0.051,0.112,0.024,0.028,0.061
0.05,0.291,0.03,0.028,0.035,0.034,0.043,0.036,0.129,0.037,0.047,0.031,0.048,0.125,0.016,0.032,0.049,0.064,0.078,0.04,0.075,0.026,0.038,0.041,0.05,0.048,0.055,0.131,0.119,0.04,0.054,0.046,0.017,0.041,0.034,0.017,0.042,0.049,0.103,0.022,0.026,0.054
0.046,0.285,0.028,0.024,0.031,0.031,0.038,0.032,0.122,0.029,0.046,0.03,0.045,0.122,0.016,0.029,0.042,0.062,0.072,0.038,0.073,0.024,0.037,0.038,0.05,0.045,0.052,0.126,0.116,0.037,0.053,0.042,0.016,0.039,0.033,0.016,0.041,0.043,0.098,0.02,0.025,0.046
0.044,0.279,0.026,0.02,0.025,0.021,0.033,0.021,0.134,0.025,0.043,0.025,0.043,0.142,0.011,0.025,0.042,0.063,0.076,0.032,0.078,0.018,0.033,0.035,0.044,0.042,0.045,0.142,0.128,0.037,0.051,0.039,0.012,0.037,0.031,0.014,0.043,0.037,0.088,0.016,0.022,0.038
0.041,0.275,0.024,0.018,0.023,0.018,0.026,0.017,0.13,0.021,0.042,0.025,0.042,0.142,0.011,0.024,0.042,0.06,0.076,0.033,0.077,0.018,0.032,0.034,0.044,0.041,0.044,0.14,0.124,0.035,0.048,0.039,0.012,0.036,0.031,0.011,0.041,0.035,0.084,0.012,0.019,0.03
0.04,0.267,0.023,0.016,0.02,0.014,0.022,0.015,0.126,0.016,0.04,0.024,0.041,0.141,0.009,0.019,0.041,0.06,0.073,0.029,0.074,0.017,0.03,0.032,0.043,0.039,0.042,0.137,0.123,0.033,0.045,0.037,0.011,0.033,0.029,0.01,0.038,0.032,0.08,0.011,0.016,0.025
0.038,0.265,0.023,0.017,0.019,0.011,0.02,0.012,0.125,0.015,0.039,0.024,0.04,0.138,0.008,0.019,0.04,0.059,0.071,0.028,0.074,0.016,0.032,0.033,0.042,0.038,0.041,0.137,0.122,0.031,0.043,0.035,0.01,0.032,0.028,0.009,0.037,0.031,0.078,0.01,0.015,0.022
0.04,0.261,0.025,0.017,0.018,0.01,0.019,0.012,0.122,0.015,0.039,0.024,0.041,0.139,0.009,0.019,0.042,0.058,0.07,0.028,0.072,0.016,0.03,0.031,0.04,0.036,0.04,0.136,0.119,0.03,0.041,0.035,0.01,0.03,0.028,0.007,0.035,0.029,0.077,0.008,0.014,0.02
0.038,0.255,0.026,0.017,0.016,0.009,0.017,0.011,0.119,0.014,0.037,0.023,0.04,0.135,0.007,0.017,0.04,0.055,0.067,0.024,0.069,0.014,0.029,0.032,0.039,0.037,0.039,0.133,0.119,0.029,0.04,0.034,0.01,0.031,0.028,0.008,0.037,0.027,0.074,0.008,0.011,0.018
0.04,0.252,0.028,0.019,0.017,0.009,0.016,0.012,0.12,0.014,0.037,0.023,0.04,0.134,0.008,0.015,0.04,0.053,0.068,0.024,0.07,0.014,0.028,0.03,0.039,0.035,0.038,0.133,0.115,0.029,0.038,0.034,0.01,0.028,0.027,0.007,0.035,0.025,0.073,0.006,0.011,0.017
0.041,0.25,0.028,0.019,0.018,0.011,0.017,0.014,0.119,0.015,0.036,0.023,0.04,0.132,0.007,0.014,0.039,0.052,0.064,0.024,0.068,0.012,0.029,0.03,0.037,0.034,0.036,0.131,0.115,0.027,0.036,0.033,0.009,0.027,0.027,0.005,0.034,0.024,0.071,0.006,0.009,0.019
0.042,0.249,0.03,0.021,0.019,0.012,0.019,0.016,0.12,0.018,0.036,0.024,0.039,0.133,0.007,0.013,0.04,0.052,0.067,0.023,0.069,0.013,0.028,0.031,0.038,0.034,0.037,0.131,0.114,0.028,0.036,0.033,0.01,0.027,0.027,0.006,0.036,0.025,0.07,0.007,0.007,0.018
0.043,0.249,0.031,0.021,0.02,0.013,0.019,0.017,0.121,0.018,0.036,0.024,0.039,0.132,0.008,0.013,0.04,0.051,0.066,0.023,0.069,0.012,0.029,0.031,0.039,0.035,0.037,0.131,0.114,0.029,0.036,0.032,0.011,0.027,0.027,0.007,0.034,0.025,0.07,0.007,0.007,0.018